Wavelength(nm),Abs,PL_(intensity)
187.928,0,
188.405,0,
188.882,0,
189.359,-0.55,
189.835,0,
190.312,-0.18,
190.789,0,
191.265,-1.16,
191.742,0,
192.219,-0.26,
192.695,-0.77,
193.172,0.27,
193.648,-0.03,
194.125,0,
194.601,0,
195.077,-0.23,
195.554,0,
196.03,0,
196.506,0,
196.983,0,
197.459,-0.15,
197.935,0,
198.411,0,
198.887,0,
199.363,0.55,
199.839,1.05,
200.315,0,
200.791,0,
201.267,-0.32,
201.743,0.05,
202.219,1.11,
202.695,0,
203.171,0.71,
203.647,0,
204.122,0.35,
204.598,0,
205.074,0,
205.549,-0.12,
206.025,0.25,
206.501,0,
206.976,-0.17,
207.452,0.48,
207.927,0,
208.402,-0.05,
208.878,0,
209.353,0.03,
209.829,1.31,
210.304,0,
210.779,0.38,
211.254,0.17,
211.73,0.29,
212.205,-1.55,
212.68,-0.36,
213.155,0.04,
213.63,0,
214.105,0,
214.58,0,
215.055,0.24,
215.53,0.29,
216.005,0.22,
216.48,0,
216.954,-0.03,
217.429,-0.96,
217.904,0.79,
218.379,-0.01,
218.853,0.05,
219.328,0,
219.803,0.37,
220.277,0.03,
220.752,0,
221.226,0,
221.701,0.48,
222.175,0,
222.65,-1.04,
223.124,0,
223.598,0,
224.073,0,
224.547,-0.31,
225.021,0,
225.495,0.02,
225.97,-0.1,
226.444,0.13,
226.918,0,
227.392,-0.23,
227.866,0,
228.34,0.12,
228.814,0.19,
229.288,0,
229.762,0.74,
230.236,0,
230.71,0.38,
231.183,0,
231.657,-0.02,
232.131,-1.46,
232.605,-0.11,
233.078,0.01,
233.552,0,
234.026,0.14,
234.499,0,
234.973,-0.91,
235.446,-0.08,
235.92,-0.02,
236.393,-0.6,
236.867,-0.56,
237.34,-0.07,
237.813,0.36,
238.287,0.22,
238.76,0.38,
239.233,0,
239.706,0,
240.179,0,
240.653,0,
241.126,-0.19,
241.599,-0.2,
242.072,0.41,
242.545,-0.33,
243.018,0,
243.491,0.63,
243.964,0.77,
244.437,0.11,
244.909,-0.19,
245.382,-0.22,
245.855,0.62,
246.328,0,
246.8,-0.2,
247.273,0,
247.746,1.16,
248.218,0.25,
248.691,0.35,
249.163,0.52,
249.636,0.38,
250.108,1.16,
250.581,1.33,
251.053,0.01,
251.526,1.29,
251.998,0.29,
252.47,0.08,
252.943,-0.84,
253.415,0,
253.887,0.49,
254.359,0.65,
254.831,-0.15,
255.304,-0.35,
255.776,0,
256.248,-0.01,
256.72,0.03,
257.192,1.09,
257.664,1.22,
258.136,1.54,
258.607,0.51,
259.079,0.1,
259.551,0.4,
260.023,0.5,
260.495,0,
260.966,-0.13,
261.438,0.33,
261.91,0.66,
262.381,-0.26,
262.853,0,
263.325,0,
263.796,0,
264.268,0,
264.739,0,
265.21,0,
265.682,0,
266.153,0,
266.624,0.29,
267.096,-0.43,
267.567,0,
268.038,0,
268.509,0.26,
268.981,0.06,
269.452,0.39,
269.923,0.57,
270.394,0.27,
270.865,-0.46,
271.336,0.63,
271.807,0,
272.278,0.62,
272.749,0,
273.22,0,
273.69,0.74,
274.161,1.42,
274.632,0.17,
275.103,-0.62,
275.574,0,
276.044,-0.03,
276.515,0.66,
276.985,0,
277.456,0.71,
277.927,0.34,
278.397,0.44,
278.868,0.26,
279.338,0.76,
279.808,1.09,
280.279,0,
280.749,0,
281.219,0,
281.69,0,
282.16,0,
282.63,-0.38,
283.1,0,
283.571,0,
284.041,0,
284.511,0,
284.981,0.13,
285.451,0.55,
285.921,0.66,
286.391,0.25,
286.861,0.41,
287.331,0,
287.8,0.96,
288.27,0.25,
288.74,0,
289.21,0.94,
289.68,0,
290.149,0.37,
290.619,0.3,
291.089,0.51,
291.558,0.64,
292.028,1.08,
292.497,0.69,
292.967,0.75,
293.436,1.01,
293.906,0.55,
294.375,1.21,
294.845,0.83,
295.314,0,
295.783,0,
296.253,1,
296.722,0,
297.191,1.14,
297.66,0,
298.129,0,
298.598,1.13,
299.068,0,
299.537,1.51,
300.006,2.13,
300.475,1.3,
300.944,0,
301.413,0,
301.881,0,
302.35,2.51,
302.819,0,
303.288,2.28,
303.757,0,
304.225,2.17,
304.694,0,
305.163,0,
305.632,1.98,
306.1,1.74,
306.569,2.82,
307.037,1.81,
307.506,2.7,
307.974,0,
308.443,2.06,
308.911,2.02,
309.38,0,
309.848,0,
310.316,1.98,
310.785,2.63,
311.253,3.08,
311.721,0,
312.189,2.3,
312.657,2.5,
313.126,2.21,
313.594,2.84,
314.062,2.51,
314.53,2.36,
314.998,0,
315.466,2.17,
315.934,2.41,
316.402,3.08,
316.869,2.6,
317.337,2.62,
317.805,0,
318.273,2.82,
318.741,0,
319.208,0,
319.676,2.5,
320.144,2.16,
320.611,2.49,
321.079,2.19,
321.547,2.24,
322.014,2.71,
322.482,2.43,
322.949,2.84,
323.416,0,
323.884,0,
324.351,2.47,
324.819,0,
325.286,3.81,
325.753,3.82,
326.22,2.37,
326.688,0,
327.155,3.83,
327.622,2.36,
328.089,3.48,
328.556,2.74,
329.023,0,
329.49,2.98,
329.957,0,
330.424,2.72,
330.891,0,
331.358,2.58,
331.825,2.59,
332.292,0,
332.759,0,
333.225,0,
333.692,2.97,
334.159,0,
334.626,0,
335.092,3.03,
335.559,3.02,
336.026,2.89,
336.492,3.33,
336.959,0,
337.425,0,
337.892,2.94,
338.358,0,
338.824,2.44,
339.291,0,
339.757,2.57,
340.223,0,
340.69,0,
341.156,2.46,
341.622,3.9,
342.088,3.57,
342.555,2.77,
343.021,2.58,
343.487,0,
343.953,2.67,
344.419,3.42,
344.885,0,
345.351,0,
345.817,0,
346.283,3.43,
346.749,3.97,
347.214,0,
347.68,3.2,
348.146,0,
348.612,3.31,
349.077,0,
349.543,3.21,
350.009,0,
350.474,0,
350.94,2.65,
351.406,0,
351.871,0,
352.337,3.64,
352.802,3.99,
353.268,0,
353.733,3.64,
354.198,0,
354.664,3.32,
355.129,2.67,
355.594,2.37,
356.06,2.85,
356.525,3.05,
356.99,3.2,
357.455,2.73,
357.92,0,
358.385,3.03,
358.851,3.41,
359.316,0,
359.781,0,
360.246,3.1,
360.711,2.38,
361.175,2.84,
361.64,0,
362.105,0,
362.57,2.89,
363.035,3.12,
363.5,0,
363.964,3.05,
364.429,2.93,
364.894,0,
365.358,0,
365.823,3.96,
366.288,3.28,
366.752,0,
367.217,0,
367.681,3.05,
368.146,3.13,
368.61,0,
369.074,3.31,
369.539,2.28,
370.003,2.87,
370.467,2.7,
370.932,3.45,
371.396,0,
371.86,3.31,
372.324,0,
372.789,3.12,
373.253,2.58,
373.717,0,
374.181,2.77,
374.645,0,
375.109,2.53,
375.573,2.63,
376.037,2.8,
376.501,2.6,
376.965,2.84,
377.428,0,
377.892,0,
378.356,0,
378.82,2.75,
379.284,3.05,
379.747,0,
380.211,2.78,
380.675,0,
381.138,3.19,
381.602,0,
382.065,3.04,
382.529,2.71,
382.992,2.71,
383.456,3.13,
383.919,0,
384.383,3.45,
384.846,3.07,
385.309,2.91,
385.773,0,
386.236,2.65,
386.699,2.61,
387.162,2.64,
387.626,2.93,
388.089,3.67,
388.552,3.67,
389.015,2.65,
389.478,0,
389.941,3.32,
390.404,3.06,
390.867,2.58,
391.33,0,
391.793,0,
392.256,0,
392.719,2.96,
393.182,3.15,
393.644,0,
394.107,2.63,
394.57,0,
395.033,2.81,
395.495,2.99,
395.958,2.46,
396.42,2.38,
396.883,3.63,
397.346,3.97,
397.808,0,
398.271,2.58,
398.733,2.63,
399.196,0,
399.658,0,
400.12,3.02,
400.583,0,
401.045,0,
401.507,0,
401.97,3.21,
402.432,3.44,
402.894,2.75,
403.356,2.75,
403.818,2.45,
404.28,2.53,
404.743,2.79,
405.205,0,
405.667,2.89,
406.129,3.24,
406.591,0,
407.053,3.21,
407.514,2.42,
407.976,3.1,
408.438,2.73,
408.9,0,
409.362,2.41,
409.823,3.97,
410.285,3.96,
410.747,2.98,
411.209,2.64,
411.67,2.72,
412.132,0,
412.593,2.76,
413.055,0,
413.516,0,
413.978,2.5,
414.439,3.18,
414.901,3.6,
415.362,2.55,
415.824,2.77,
416.285,3.16,
416.746,2.55,
417.208,3.58,
417.669,2.94,
418.13,2.55,
418.591,0,
419.052,3.25,
419.514,3,
419.975,2.73,
420.436,2.53,
420.897,0,
421.358,2.44,
421.819,2.44,
422.28,2.51,
422.741,2.77,
423.202,2.8,
423.662,2.87,
424.123,3.98,
424.584,0,
425.045,0,
425.506,2.88,
425.966,2.49,
426.427,3.42,
426.888,0,
427.348,2.49,
427.809,3,
428.27,0,
428.73,2.68,
429.191,2.54,
429.651,2.62,
430.112,2.73,
430.572,3.5,
431.032,2.45,
431.493,2.98,
431.953,2.68,
432.414,2.98,
432.874,2.52,
433.334,2.47,
433.794,2.94,
434.254,3.22,
434.715,2.53,
435.175,3.32,
435.635,2.65,
436.095,2.65,
436.555,0,
437.015,2.5,
437.475,2.55,
437.935,2.72,
438.395,2.44,
438.855,2.52,
439.315,2.14,
439.775,0,
440.234,0,
440.694,2.56,
441.154,2.5,
441.614,3.08,
442.073,0,
442.533,2.51,
442.993,2.59,
443.452,2.89,
443.912,2.84,
444.372,2.7,
444.831,0,
445.291,2.43,
445.75,0,
446.21,3.05,
446.669,3.04,
447.128,2.52,
447.588,3.46,
448.047,2.73,
448.506,3.15,
448.966,2.46,
449.425,2.56,
449.884,2.64,
450.343,2.99,
450.802,0,
451.262,3.2,
451.721,2.8,
452.18,2.53,
452.639,2.71,
453.098,2.41,
453.557,0,
454.016,2.32,
454.475,3.63,
454.934,3.32,
455.392,3.64,
455.851,0,
456.31,2.54,
456.769,2.93,
457.228,0,
457.686,2.58,
458.145,2.68,
458.604,0,
459.062,3.36,
459.521,0,
459.98,2.68,
460.438,2.63,
460.897,2.94,
461.355,0,
461.814,2.73,
462.272,2.57,
462.731,2.53,
463.189,2.73,
463.647,2.66,
464.106,3.49,
464.564,2.72,
465.022,2.72,
465.481,0,
465.939,2.72,
466.397,2.42,
466.855,2.39,
467.313,2.84,
467.771,2.73,
468.229,2.87,
468.687,2.42,
469.145,2.93,
469.603,2.68,
470.061,2.64,
470.519,2.49,
470.977,3.26,
471.435,2.77,
471.893,2.42,
472.351,2.55,
472.809,2.84,
473.266,2.74,
473.724,2.59,
474.182,2.46,
474.64,2.58,
475.097,3.61,
475.555,2.88,
476.012,3,
476.47,2.89,
476.928,0,
477.385,2.53,
477.843,2.39,
478.3,2.58,
478.757,2.78,
479.215,2.7,
479.672,2.56,
480.13,2.75,
480.587,2.66,
481.044,3.31,
481.501,2.54,
481.959,2.59,
482.416,2.43,
482.873,2.51,
483.33,2.65,
483.787,2.91,
484.244,0,
484.701,2.86,
485.159,3.27,
485.616,2.67,
486.072,2.69,
486.529,2.68,
486.986,2.74,
487.443,2.4,
487.9,2.4,
488.357,2.95,
488.814,2.95,
489.271,2.74,
489.727,2.76,
490.184,2.48,
490.641,2.51,
491.097,2.32,
491.554,2.51,
492.011,2.64,
492.467,2.38,
492.924,2.52,
493.38,2.59,
493.837,2.78,
494.293,2.7,
494.75,2.82,
495.206,2.64,
495.663,2.48,
496.119,2.5,
496.575,2.35,
497.032,2.35,
497.488,2.43,
497.944,2.88,
498.4,2.37,
498.857,2.57,
499.313,2.46,
499.769,2.48,
500.225,2.58,
500.681,2.26,
501.137,2.35,
501.593,2.39,
502.049,2.37,
502.505,2.32,
502.961,2.32,
503.417,2.15,
503.873,2.42,
504.329,2.35,
504.785,2.25,
505.241,2.4,
505.696,2.28,
506.152,2.24,
506.608,2.34,
507.064,2.26,
507.519,2.25,
507.975,2.27,
508.431,2.35,
508.886,2.2,
509.342,2.1,
509.797,2.07,
510.253,2.18,
510.708,2.16,
511.164,2.14,
511.619,2,
512.075,2.17,
512.53,1.99,
512.985,2.02,
513.441,2.26,
513.896,2.12,
514.351,2.05,
514.806,2.04,
515.262,2.22,
515.717,2.19,
516.172,2.03,
516.627,2.01,
517.082,1.96,
517.537,1.87,
517.992,1.94,
518.447,1.96,
518.902,1.91,
519.357,1.92,
519.812,1.98,
520.267,1.83,
520.722,1.91,
521.177,1.92,
521.632,1.95,
522.087,1.79,
522.541,1.97,
522.996,1.97,
523.451,1.82,
523.906,1.91,
524.36,1.94,
524.815,1.85,
525.27,1.86,
525.724,1.81,
526.179,1.75,
526.633,1.8,
527.088,1.82,
527.542,1.93,
527.997,1.81,
528.451,1.74,
528.906,1.77,
529.36,1.74,
529.814,1.69,
530.269,1.7,
530.723,1.76,
531.177,1.73,
531.631,1.67,
532.086,1.72,
532.54,1.74,
532.994,1.76,
533.448,1.61,
533.902,1.68,
534.356,1.67,
534.81,1.67,
535.264,1.68,
535.718,1.62,
536.172,1.63,
536.626,1.64,
537.08,1.6,
537.534,1.69,
537.988,1.6,
538.442,1.58,
538.896,1.6,
539.349,1.59,
539.803,1.56,
540.257,1.55,
540.711,1.53,
541.164,1.52,
541.618,1.53,
542.072,1.54,
542.525,1.51,
542.979,1.49,
543.432,1.5,
543.886,1.49,
544.339,1.49,
544.793,1.47,
545.246,1.46,
545.7,1.52,
546.153,1.46,
546.606,1.44,
547.06,1.45,
547.513,1.44,
547.966,1.46,
548.42,1.42,
548.873,1.46,
549.326,1.41,
549.779,1.43,
550.232,1.42,
550.685,1.39,
551.138,1.38,
551.592,1.4,
552.045,1.4,
552.498,1.38,
552.951,1.36,
553.404,1.38,
553.856,1.35,
554.309,1.36,
554.762,1.32,
555.215,1.34,
555.668,1.33,
556.121,1.31,
556.574,1.31,
557.026,1.31,
557.479,1.31,
557.932,1.31,
558.384,1.32,
558.837,1.27,
559.29,1.29,
559.742,1.29,
560.195,1.27,
560.647,1.28,
561.1,1.27,
561.552,1.28,
562.005,1.25,
562.457,1.26,
562.91,1.23,
563.362,1.24,
563.814,1.24,
564.267,1.23,
564.719,1.23,
565.171,1.23,
565.624,1.22,
566.076,1.21,
566.528,1.2,
566.98,1.2,
567.432,1.2,
567.884,1.21,
568.337,1.2,
568.789,1.17,
569.241,1.19,
569.693,1.18,
570.145,1.16,
570.597,1.18,
571.049,1.18,
571.5,1.15,
571.952,1.17,
572.404,1.14,
572.856,1.16,
573.308,1.15,
573.76,1.13,
574.211,1.12,
574.663,1.13,
575.115,1.12,
575.567,1.13,
576.018,1.12,
576.47,1.12,
576.921,1.11,
577.373,1.1,
577.825,1.1,
578.276,1.1,
578.728,1.1,
579.179,1.08,
579.63,1.09,
580.082,1.08,
580.533,1.09,
580.985,1.08,
581.436,1.07,
581.887,1.07,
582.339,1.07,
582.79,1.05,
583.241,1.07,
583.692,1.04,
584.144,1.04,
584.595,1.04,
585.046,1.04,
585.497,1.02,
585.948,1.03,
586.399,1.03,
586.85,1.03,
587.301,1.01,
587.752,1,
588.203,1.01,
588.654,1.02,
589.105,1,
589.556,1.01,
590.007,1,
590.457,0.99,
590.908,0.99,
591.359,0.98,
591.81,0.99,
592.261,0.98,
592.711,0.96,
593.162,0.97,
593.613,0.97,
594.063,0.97,
594.514,0.95,
594.964,0.96,
595.415,0.96,
595.865,0.95,
596.316,0.94,
596.766,0.95,
597.217,0.95,
597.667,0.93,
598.118,0.93,
598.568,0.92,
599.018,0.93,
599.469,0.93,
599.919,0.92,
600.369,0.92,
600.82,0.93,
601.27,0.92,
601.72,0.91,
602.17,0.91,
602.62,0.91,
603.07,0.9,
603.52,0.91,
603.971,0.89,
604.421,0.88,
604.871,0.89,
605.321,0.88,
605.771,0.89,
606.221,0.88,
606.67,0.88,
607.12,0.89,
607.57,0.87,
608.02,0.87,
608.47,0.86,
608.92,0.87,
609.369,0.87,
609.819,0.87,
610.269,0.86,
610.719,0.86,
611.168,0.85,
611.618,0.85,
612.067,0.85,
612.517,0.84,
612.967,0.84,
613.416,0.84,
613.866,0.84,
614.315,0.84,
614.765,0.84,
615.214,0.84,
615.663,0.83,
616.113,0.82,
616.562,0.82,
617.012,0.81,
617.461,0.83,
617.91,0.81,
618.359,0.81,
618.809,0.82,
619.258,0.81,
619.707,0.81,
620.156,0.81,
620.605,0.8,
621.055,0.79,
621.504,0.8,
621.953,0.79,
622.402,0.8,
622.851,0.8,
623.3,0.79,
623.749,0.79,
624.198,0.79,
624.647,0.78,
625.095,0.78,
625.544,0.78,
625.993,0.78,
626.442,0.78,
626.891,0.77,
627.34,0.77,
627.788,0.76,
628.237,0.77,
628.686,0.76,
629.134,0.77,
629.583,0.77,
630.032,0.77,
630.48,0.76,
630.929,0.75,
631.377,0.75,
631.826,0.75,
632.274,0.75,
632.723,0.74,
633.171,0.75,
633.62,0.74,
634.068,0.75,
634.516,0.75,
634.965,0.73,
635.413,0.75,
635.861,0.74,
636.31,0.74,
636.758,0.74,
637.206,0.73,
637.654,0.73,
638.103,0.72,
638.551,0.72,
638.999,0.72,
639.447,0.71,
639.895,0.72,
640.343,0.71,
640.791,0.71,
641.239,0.71,
641.687,0.71,
642.135,0.7,
642.583,0.7,
643.031,0.71,
643.479,0.69,
643.927,0.69,
644.374,0.7,
644.822,0.69,
645.27,0.69,
645.718,0.69,
646.166,0.68,
646.613,0.68,
647.061,0.69,
647.509,0.69,
647.956,0.68,
648.404,0.68,
648.851,0.68,
649.299,0.67,
649.747,0.66,
650.194,0.67,
650.642,0.67,
651.089,0.67,
651.537,0.66,
651.984,0.67,
652.431,0.65,
652.879,0.66,
653.326,0.66,
653.773,0.64,
654.221,0.65,
654.668,0.65,
655.115,0.64,
655.562,0.65,
656.01,0.63,
656.457,0.64,
656.904,0.64,
657.351,0.64,
657.798,0.64,
658.245,0.63,
658.692,0.64,
659.139,0.64,
659.586,0.63,
660.033,0.63,
660.48,0.63,
660.927,0.63,
661.374,0.63,
661.821,0.63,
662.268,0.63,
662.715,0.62,
663.162,0.63,
663.608,0.62,
664.055,0.62,
664.502,0.62,
664.949,0.62,
665.395,0.62,
665.842,0.62,
666.289,0.62,
666.735,0.61,
667.182,0.62,
667.629,0.62,
668.075,0.61,
668.522,0.61,
668.968,0.61,
669.415,0.61,
669.861,0.6,
670.308,0.6,
670.754,0.6,
671.2,0.6,
671.647,0.61,
672.093,0.6,
672.539,0.6,
672.986,0.61,
673.432,0.6,
673.878,0.6,
674.324,0.6,
674.771,0.6,
675.217,0.6,
675.663,0.59,
676.109,0.6,
676.555,0.59,
677.001,0.59,
677.447,0.59,
677.893,0.59,
678.339,0.58,
678.785,0.59,
679.231,0.58,
679.677,0.59,
680.123,0.59,
680.569,0.58,
681.015,0.58,
681.461,0.58,
681.907,0.58,
682.353,0.58,
682.798,0.58,
683.244,0.58,
683.69,0.58,
684.135,0.57,
684.581,0.58,
685.027,0.57,
685.472,0.57,
685.918,0.57,
686.364,0.57,
686.809,0.56,
687.255,0.57,
687.7,0.57,
688.146,0.57,
688.591,0.57,
689.037,0.56,
689.482,0.56,
689.928,0.56,
690.373,0.56,
690.818,0.55,
691.264,0.56,
691.709,0.56,
692.154,0.56,
692.6,0.56,
693.045,0.56,
693.49,0.55,
693.935,0.55,
694.38,0.55,
694.825,0.55,
695.271,0.55,
695.716,0.55,
696.161,0.55,
696.606,0.55,
697.051,0.55,
697.496,0.55,
697.941,0.55,
698.386,0.55,
698.831,0.54,
699.276,0.55,
699.721,0.55,
700.165,0.53,
700.61,0.55,
701.055,0.54,
701.5,0.54,
701.945,0.54,
702.389,0.54,
702.834,0.54,
703.279,0.54,
703.724,0.54,
704.168,0.54,
704.613,0.54,
705.058,0.53,
705.502,0.54,
705.947,0.53,
706.391,0.54,
706.836,0.53,
707.28,0.53,
707.725,0.53,
708.169,0.52,
708.614,0.53,
709.058,0.52,
709.502,0.53,
709.947,0.53,
710.391,0.53,
710.835,0.53,
711.28,0.53,
711.724,0.52,
712.168,0.53,
712.613,0.52,
713.057,0.52,
713.501,0.52,
713.945,0.52,
714.389,0.52,
714.833,0.52,
715.277,0.52,
715.722,0.51,
716.166,0.52,
716.61,0.52,
717.054,0.51,
717.498,0.51,
717.942,0.52,
718.385,0.51,
718.829,0.52,
719.273,0.52,
719.717,0.51,
720.161,0.52,
720.605,0.52,
721.049,0.52,
721.492,0.52,
721.936,0.51,
722.38,0.51,
722.824,0.51,
723.267,0.52,
723.711,0.5,
724.155,0.51,
724.598,0.51,
725.042,0.51,
725.485,0.52,
725.929,0.51,
726.372,0.51,
726.816,0.5,
727.259,0.51,
727.703,0.51,
728.146,0.51,
728.59,0.5,
729.033,0.51,
729.476,0.5,
729.92,0.51,
730.363,0.5,
730.806,0.51,
731.25,0.51,
731.693,0.51,
732.136,0.51,
732.579,0.5,
733.023,0.5,
733.466,0.51,
733.909,0.5,
734.352,0.5,
734.795,0.5,
735.238,0.5,
735.681,0.5,
736.124,0.5,
736.567,0.5,
737.01,0.5,
737.453,0.49,
737.896,0.5,
738.339,0.49,
738.782,0.49,
739.225,0.49,
739.668,0.5,
740.111,0.49,
740.553,0.49,
740.996,0.49,
741.439,0.49,
741.882,0.5,
742.325,0.5,
742.767,0.49,
743.21,0.49,
743.653,0.49,
744.095,0.49,
744.538,0.49,
744.98,0.49,
745.423,0.49,
745.866,0.48,
746.308,0.48,
746.751,0.48,
747.193,0.48,
747.635,0.48,
748.078,0.48,
748.52,0.48,
748.963,0.48,
749.405,0.47,
749.847,0.47,
750.29,0.46,
750.732,0.47,
751.174,0.46,
751.617,0.46,
752.059,0.45,
752.501,0.45,
752.943,0.45,
753.385,0.45,
753.828,0.45,
754.27,0.44,
754.712,0.44,
755.154,0.43,
755.596,0.43,
756.038,0.43,
756.48,0.43,
756.922,0.41,
757.364,0.41,
757.806,0.41,
758.248,0.4,
758.69,0.39,
759.132,0.39,
759.574,0.38,
760.016,0.39,
760.457,0.38,
760.899,0.36,
761.341,0.36,
761.783,0.35,
762.224,0.35,
762.666,0.35,
763.108,0.34,
763.55,0.34,
763.991,0.33,
764.433,0.32,
764.874,0.32,
765.316,0.3,
765.758,0.3,
766.199,0.29,
766.641,0.28,
767.082,0.28,
767.524,0.27,
767.965,0.26,
768.407,0.26,
768.848,0.26,
769.289,0.25,
769.731,0.24,
770.172,0.24,
770.613,0.23,
771.055,0.23,
771.496,0.22,
771.937,0.21,
772.379,0.21,
772.82,0.21,
773.261,0.19,
773.702,0.19,
774.143,0.2,
774.584,0.19,
775.026,0.18,
775.467,0.18,
775.908,0.18,
776.349,0.17,
776.79,0.16,
777.231,0.16,
777.672,0.16,
778.113,0.16,
778.554,0.16,
778.995,0.15,
779.436,0.15,
779.876,0.15,
780.317,0.15,
780.758,0.15,
781.199,0.15,
781.64,0.14,
782.081,0.14,
782.521,0.14,
782.962,0.14,
783.403,0.12,
783.843,0.14,
784.284,0.14,
784.725,0.13,
785.165,0.14,
785.606,0.13,
786.047,0.13,
786.487,0.13,
786.928,0.13,
787.368,0.13,
787.809,0.13,
788.249,0.13,
788.69,0.13,
789.13,0.13,
789.571,0.12,
790.011,0.12,
790.451,0.13,
790.892,0.12,
791.332,0.12,
791.772,0.12,
792.213,0.12,
792.653,0.13,
793.093,0.12,
793.533,0.12,
793.974,0.12,
794.414,0.12,
794.854,0.12,
795.294,0.12,
795.734,0.12,
796.174,0.13,
796.614,0.13,
797.054,0.13,
797.494,0.12,
797.934,0.13,
798.374,0.13,
798.814,0.12,
799.254,0.12,
799.694,0.13,
800.134,0.13,
800.574,0.12,
801.014,0.13,
801.454,0.12,
801.894,0.12,
802.334,0.12,
802.773,0.13,
803.213,0.13,
803.653,0.12,
804.093,0.13,
804.532,0.13,
804.972,0.13,
805.412,0.13,
805.851,0.12,
806.291,0.13,
806.731,0.13,
807.17,0.13,
807.61,0.13,
808.049,0.14,
808.489,0.13,
808.928,0.14,
809.368,0.13,
809.807,0.14,
810.247,0.13,
810.686,0.13,
811.125,0.13,
811.565,0.14,
812.004,0.14,
812.444,0.13,
812.883,0.14,
813.322,0.14,
813.761,0.15,
814.201,0.13,
814.64,0.13,
815.079,0.14,
815.518,0.14,
815.958,0.13,
816.397,0.13,
816.836,0.14,
817.275,0.13,
817.714,0.15,
818.153,0.13,
818.592,0.14,
819.031,0.14,
819.47,0.14,
819.909,0.14,
820.348,0.14,
820.787,0.14,
821.226,0.14,
821.665,0.14,
822.104,0.13,
822.543,0.14,
822.982,0.14,
823.42,0.14,
823.859,0.13,
824.298,0.14,
824.737,0.14,
825.176,0.14,
825.614,0.14,
826.053,0.14,
826.492,0.13,
826.93,0.14,
827.369,0.14,
827.808,0.14,
828.246,0.13,
828.685,0.14,
829.123,0.13,
829.562,0.14,
830,0.14,
830.439,0.15,
830.877,0.15,
831.316,0.14,
831.754,0.14,
832.193,0.14,
832.631,0.14,
833.07,0.15,
833.508,0.14,
833.946,0.14,
834.385,0.15,
834.823,0.13,
835.261,0.14,
835.7,0.15,
836.138,0.15,
836.576,0.14,
837.014,0.14,
837.452,0.15,
837.891,0.14,
838.329,0.15,
838.767,0.13,
839.205,0.15,
839.643,0.15,
840.081,0.14,
840.519,0.14,
840.957,0.14,
841.395,0.14,
841.833,0.14,
842.271,0.15,
842.709,0.15,
843.147,0.15,
843.585,0.15,
844.023,0.14,
844.461,0.14,
844.899,0.14,
845.336,0.15,
845.774,0.15,
846.212,0.14,
846.65,0.15,
847.088,0.14,
847.525,0.15,
847.963,0.14,
848.401,0.15,
848.838,0.14,
849.276,0.15,
849.714,0.15,
850.151,0.15,
850.589,0.14,
851.026,0.15,
851.464,0.15,
851.902,0.14,
852.339,0.15,
852.777,0.15,
853.214,0.14,
853.651,0.13,
854.089,0.13,
854.526,0.15,
854.964,0.15,
855.401,0.15,
855.838,0.14,
856.276,0.14,
856.713,0.15,
857.15,0.15,
857.588,0.15,
858.025,0.15,
858.462,0.15,
858.899,0.14,
859.337,0.15,
859.774,0.15,
860.211,0.15,
860.648,0.14,
861.085,0.14,
861.522,0.15,
861.959,0.15,
862.397,0.15,
862.834,0.14,
863.271,0.15,
863.708,0.14,
864.145,0.15,
864.582,0.14,
865.019,0.14,
865.456,0.14,
865.892,0.15,
866.329,0.14,
866.766,0.14,
867.203,0.15,
867.64,0.14,
868.077,0.13,
868.514,0.14,
868.95,0.14,
869.387,0.15,
869.824,0.14,
870.261,0.15,
870.697,0.15,
871.134,0.14,
871.571,0.14,
872.007,0.14,
872.444,0.15,
872.88,0.15,
873.317,0.14,
873.754,0.14,
874.19,0.15,
874.627,0.14,
875.063,0.15,
875.5,0.14,
875.936,0.13,
876.373,0.14,
876.809,0.14,
877.246,0.14,
877.682,0.14,
878.118,0.14,
878.555,0.14,
878.991,0.14,
879.427,0.14,
879.864,0.14,
880.3,0.14,
880.736,0.13,
881.172,0.14,
881.609,0.14,
882.045,0.14,
882.481,0.14,
882.917,0.14,
883.353,0.14,
883.79,0.14,
884.226,0.14,
884.662,0.13,
885.098,0.13,
885.534,0.14,
885.97,0.13,
886.406,0.13,
886.842,0.13,
887.278,0.13,
887.714,0.13,
888.15,0.13,
888.586,0.12,
889.022,0.12,
889.458,0.12,
889.893,0.12,
890.329,0.12,
890.765,0.11,
891.201,0.11,
891.637,0.12,
892.073,0.11,
892.508,0.11,
892.944,0.11,
893.38,0.11,
893.816,0.11,
894.251,0.1,
894.687,0.11,
895.123,0.1,
895.558,0.1,
895.994,0.1,
896.429,0.1,
896.865,0.1,
897.301,0.1,
897.736,0.1,
898.172,0.1,
898.607,0.1,
899.043,0.1,
899.478,0.1,
899.913,0.09,
900.349,0.09,
900.784,0.09,
901.22,0.09,
901.655,0.09,
902.09,0.09,
902.526,0.09,
902.961,0.09,
903.396,0.09,
903.832,0.1,
904.267,0.09,
904.702,0.09,
905.137,0.1,
905.573,0.1,
906.008,0.1,
906.443,0.1,
906.878,0.1,
907.313,0.1,
907.748,0.1,
908.183,0.1,
908.619,0.1,
909.054,0.1,
909.489,0.1,
909.924,0.1,
910.359,0.1,
910.794,0.11,
911.229,0.1,
911.664,0.11,
912.099,0.1,
912.533,0.11,
912.968,0.11,
913.403,0.11,
913.838,0.11,
914.273,0.12,
914.708,0.11,
915.143,0.11,
915.577,0.11,
916.012,0.11,
916.447,0.11,
916.882,0.11,
917.316,0.11,
917.751,0.11,
918.186,0.11,
918.62,0.11,
919.055,0.12,
919.49,0.11,
919.924,0.12,
920.359,0.11,
920.793,0.11,
921.228,0.11,
921.663,0.12,
922.097,0.11,
922.532,0.11,
922.966,0.12,
923.4,0.11,
923.835,0.11,
924.269,0.11,
924.704,0.12,
925.138,0.11,
925.573,0.12,
926.007,0.12,
926.441,0.12,
926.876,0.12,
927.31,0.11,
927.744,0.12,
928.178,0.11,
928.613,0.13,
929.047,0.12,
929.481,0.11,
929.915,0.11,
930.35,0.11,
930.784,0.12,
931.218,0.12,
931.652,0.12,
932.086,0.11,
932.52,0.12,
932.954,0.11,
933.388,0.11,
933.822,0.11,
934.256,0.11,
934.69,0.11,
935.124,0.11,
935.558,0.1,
935.992,0.11,
936.426,0.11,
936.86,0.11,
937.294,0.11,
937.728,0.11,
938.162,0.11,
938.596,0.11,
939.029,0.1,
939.463,0.11,
939.897,0.11,
940.331,0.12,
940.765,0.11,
941.198,0.11,
941.632,0.1,
942.066,0.11,
942.499,0.11,
942.933,0.11,
943.367,0.11,
943.8,0.1,
944.234,0.1,
944.668,0.11,
945.101,0.11,
945.535,0.11,
945.968,0.11,
946.402,0.1,
946.835,0.11,
947.269,0.1,
947.702,0.11,
948.136,0.1,
948.569,0.09,
949.003,0.1,
949.436,0.1,
949.869,0.11,
950.303,0.09,
950.736,0.11,
951.17,0.1,
951.603,0.11,
952.036,0.09,
952.469,0.11,
952.903,0.1,
953.336,0.1,
953.769,0.1,
954.202,0.1,
954.636,0.1,
955.069,0.1,
955.502,0.1,
955.935,0.1,
956.368,0.1,
956.801,0.1,
957.234,0.11,
957.668,0.1,
958.101,0.1,
958.534,0.1,
958.967,0.1,
959.4,0.1,
959.833,0.09,
960.266,0.1,
960.699,0.1,
961.132,0.09,
961.565,0.09,
961.997,0.1,
962.43,0.1,
962.863,0.1,
963.296,0.09,
963.729,0.09,
964.162,0.09,
964.595,0.09,
965.027,0.09,
965.46,0.1,
965.893,0.1,
966.326,0.09,
966.758,0.09,
967.191,0.09,
967.624,0.09,
968.056,0.09,
968.489,0.09,
968.922,0.09,
969.354,0.08,
969.787,0.08,
970.22,0.09,
970.652,0.09,
971.085,0.1,
971.517,0.09,
971.95,0.1,
972.382,0.1,
972.815,0.09,
973.247,0.08,
973.68,0.08,
974.112,0.08,
974.545,0.08,
974.977,0.09,
975.409,0.08,
975.842,0.08,
976.274,0.09,
976.707,0.09,
977.139,0.08,
977.571,0.08,
978.003,0.09,
978.436,0.09,
978.868,0.09,
979.3,0.08,
979.732,0.09,
980.165,0.07,
980.597,0.08,
981.029,0.08,
981.461,0.08,
981.893,0.07,
982.325,0.08,
982.758,0.08,
983.19,0.08,
983.622,0.08,
984.054,0.08,
984.486,0.08,
984.918,0.08,
985.35,0.08,
985.782,0.09,
986.214,0.08,
986.646,0.08,
987.078,0.08,
987.51,0.08,
987.942,0.08,
988.373,0.07,
988.805,0.09,
989.237,0.07,
989.669,0.07,
990.101,0.07,
990.533,0.07,
990.965,0.08,
991.396,0.08,
991.828,0.07,
992.26,0.07,
992.692,0.08,
993.123,0.09,
993.555,0.07,
993.987,0.07,
994.418,0.08,
994.85,0.07,
995.282,0.07,
995.713,0.07,
996.145,0.07,
996.576,0.08,
997.008,0.07,
997.44,0.08,
997.871,0.07,
998.303,0.07,
998.734,0.08,
999.166,0.07,
999.597,0.06,
1000.029,0.08,
1000.46,0.07,
1000.891,0.07,
1001.323,0.06,
1001.754,0.07,
1002.186,0.06,
1002.617,0.06,
1003.048,0.06,
1003.48,0.06,
1003.911,0.07,
1004.342,0.08,
1004.774,0.08,
1005.205,0.07,
1005.636,0.06,
1006.067,0.07,
1006.498,0.06,
1006.93,0.07,
1007.361,0.07,
1007.792,0.04,
1008.223,0.08,
1008.654,0.07,
1009.085,0.06,
1009.517,0.07,
1009.948,0.07,
1010.379,0.07,
1010.81,0.07,
1011.241,0.06,
1011.672,0.07,
1012.103,0.06,
1012.534,0.07,
1012.965,0.06,
1013.396,0.06,
1013.827,0.05,
1014.258,0.07,
1014.689,0.06,
1015.12,0.08,
1015.55,0.06,
1015.981,0.08,
1016.412,0.06,
1016.843,0.07,
1017.274,0.06,
1017.705,0.04,
1018.135,0.06,
1018.566,0.05,
1018.997,0.06,
1019.428,0.07,
1019.858,0.06,
1020.289,0.05,
1020.72,0.06,
1021.15,0.06,
1021.581,0.06,
1022.012,0.06,
1022.442,0.06,
1022.873,0.08,
1023.304,0.05,
1023.734,0.08,
1024.165,0.08,
1024.595,0.05,
1025.026,0.05,
1025.456,0.06,
1025.887,0.06,
1026.317,0.05,
1026.748,0.06,
1027.178,0.07,
1027.609,0.06,
1028.039,0.06,
1028.47,0.06,
1028.9,0.07,
1029.331,0.07,
1029.761,0.05,
1030.191,0.05,
1030.622,0.04,
1031.052,0.05,
1031.482,0.06,
1031.913,0.06,
1032.343,0.06,
1032.773,0.04,
1033.203,0.06,
1033.634,0.07,
1034.064,0.06,
1034.494,0.07,
1034.924,0.06,
1035.354,0.07,
1035.784,0.04,
1036.215,0.05,
1036.645,0.06,
1037.075,0.07,
1037.505,0.04,
1037.935,0.03,
1038.365,0.05,
1038.795,0.05,
1039.225,0.04,
1039.655,0.05,
1040.085,0.04,
1040.515,0.05,
1040.945,0.07,
1041.375,0.06,
1041.805,0.04,
1042.235,0.04,
1042.665,0.07,
1043.095,0.07,
1043.525,0.06,
1043.955,0.03,
1044.384,0.05,
1044.814,0.03,
1045.244,0.06,
1045.674,0.07,
1046.104,0.06,
1046.534,0.06,
1046.963,0.08,
1047.393,0.06,
1047.823,0.07,
1048.252,0.04,
1048.682,0.06,
1049.112,0.07,
1049.542,0.06,
1049.971,0.07,
1050.401,0.06,
1050.831,0.04,
1051.26,0.06,
1051.69,0.05,
1052.119,0.05,
1052.549,0.02,
1052.978,0.02,
1053.408,0.06,
1053.838,0.03,
1054.267,0.05,
1054.697,0.05,
1055.126,0.07,
1055.555,0.04,
1055.985,0.02,
1056.414,0.05,
1056.844,0.06,
1057.273,0.05,
1057.703,0.06,
1058.132,0.03,
1058.561,0.06,
1058.991,0.08,
1059.42,0.02,
1059.849,0.03,
1060.279,0.07,
1060.708,0.04,
1061.137,0.06,
1061.566,0.02,
1061.996,0.07,
1062.425,0.03,
1062.854,0.02,
1063.283,0.01,
1063.713,0,
1064.142,0.02,
1064.571,0.06,
1065,0.05,
1065.429,0.01,
1065.858,0.07,
1066.287,0.02,
1066.716,0.08,
1067.146,0.03,
1067.575,0.04,
1068.004,0.03,
1068.433,0.04,
1068.862,0.07,
1069.291,0.02,
1069.72,0.01,
1070.149,0.04,
1070.578,0.08,
1071.007,0.07,
1071.435,0.04,
1071.864,0.03,
1072.293,0.03,
1072.722,0,
1073.151,0.03,
1073.58,0.05,
1074.009,0,
1074.438,0.03,
1074.866,0.07,
1075.295,0.05,
1075.724,0.06,
1076.153,0,
1076.581,-0.03,
1077.01,0.09,
1077.439,0.07,
1077.868,0.07,
1078.296,0.02,
1078.725,0.06,
1079.154,0.02,
1079.582,0.01,
1080.011,0.01,
1080.44,0.13,
1080.868,0,
1081.297,0.08,
1081.725,-0.05,
1082.154,0.04,
1082.583,0.05,
1083.011,-0.01,
1083.44,-0.03,
1083.868,0.06,
1084.297,0.11,
1084.725,0.07,
1085.154,0,
1085.582,0.02,
1086.011,0.03,
1086.439,0,
1086.867,0.08,
1087.296,0.01,
1087.724,0.17,
1088.153,0,
1088.581,-0.02,
1089.009,-0.01,
1089.438,0.09,
1089.866,0.07,
1090.294,0.05,
1090.723,0,
1091.151,0.02,
1091.579,0.03,
1092.007,0.05,
1092.436,0.04,
1092.864,0.07,
1093.292,0.05,
1093.72,0.04,
1094.148,-0.05,
1094.576,0.06,
1095.005,0.1,
1095.433,-0.01,
1095.861,-0.08,
1096.289,0.04,
1096.717,0.06,
1097.145,-0.09,
1097.573,0.12,
1098.001,-0.05,
1098.429,0.15,
1098.857,-0.03,
1099.285,0.05,
1099.713,0.05,
1100.141,-0.01,
1100.569,0.05,
1100.997,-0.03,
1101.425,-0.05,
1101.853,0.14,
1102.281,-0.04,
1102.709,0,
1103.137,0,
1103.565,-0.05,
1103.993,0.06,
1104.421,0,
1104.848,-0.02,
1105.276,-0.09,
1105.704,0.04,
1106.132,0.11,
1106.56,-0.08,
187.928,,-12.94
188.405,,-12.94
188.882,,-12.94
189.359,,15.06
189.835,,6.06
190.312,,-3.94
190.789,,-6.94
191.265,,11.06
191.742,,6.06
192.219,,-26.94
192.695,,-16.94
193.172,,-10.94
193.648,,18.06
194.125,,1.06
194.601,,15.06
195.077,,-18.94
195.554,,26.06
196.03,,-0.94
196.506,,-30.94
196.983,,5.06
197.459,,17.06
197.935,,-11.94
198.411,,6.06
198.887,,5.06
199.363,,-11.94
199.839,,-15.94
200.315,,-25.94
200.791,,-22.94
201.267,,14.06
201.743,,-0.94
202.219,,-4.94
202.695,,-21.94
203.171,,6.06
203.647,,16.06
204.122,,2.06
204.598,,10.06
205.074,,-5.94
205.549,,4.06
206.025,,10.06
206.501,,-18.94
206.976,,6.06
207.452,,-11.94
207.927,,-9.94
208.402,,-9.94
208.878,,17.06
209.353,,12.06
209.829,,7.06
210.304,,-4.94
210.779,,-28.94
211.254,,0.06
211.73,,4.06
212.205,,15.06
212.68,,-14.94
213.155,,-4.94
213.63,,0.06
214.105,,-2.94
214.58,,-0.94
215.055,,-8.94
215.53,,1.06
216.005,,5.06
216.48,,4.06
216.954,,6.06
217.429,,12.06
217.904,,-6.94
218.379,,-17.94
218.853,,0.06
219.328,,11.06
219.803,,-10.94
220.277,,-10.94
220.752,,-18.94
221.226,,-4.94
221.701,,1.06
222.175,,-14.94
222.65,,-16.94
223.124,,10.06
223.598,,12.06
224.073,,-1.94
224.547,,-15.94
225.021,,10.06
225.495,,5.06
225.97,,-7.94
226.444,,-20.94
226.918,,5.06
227.392,,-0.94
227.866,,9.06
228.34,,-10.94
228.814,,-7.94
229.288,,19.06
229.762,,6.06
230.236,,-28.94
230.71,,4.06
231.183,,32.06
231.657,,0.06
232.131,,-9.94
232.605,,3.06
233.078,,6.06
233.552,,1.06
234.026,,6.06
234.499,,-5.94
234.973,,14.06
235.446,,21.06
235.92,,-3.94
236.393,,-25.94
236.867,,2.06
237.34,,13.06
237.813,,4.06
238.287,,3.06
238.76,,-28.94
239.233,,8.06
239.706,,17.06
240.179,,12.06
240.653,,-9.94
241.126,,6.06
241.599,,6.06
242.072,,0.06
242.545,,4.06
243.018,,1.06
243.491,,9.06
243.964,,-10.94
244.437,,4.06
244.909,,-4.94
245.382,,5.06
245.855,,3.06
246.328,,11.06
246.8,,-20.94
247.273,,7.06
247.746,,10.06
248.218,,-10.94
248.691,,-12.94
249.163,,-5.94
249.636,,4.06
250.108,,-5.94
250.581,,-5.94
251.053,,6.06
251.526,,22.06
251.998,,6.06
252.47,,1.06
252.943,,7.06
253.415,,7.06
253.887,,-0.94
254.359,,11.06
254.831,,-4.94
255.304,,26.06
255.776,,6.06
256.248,,-13.94
256.72,,4.06
257.192,,15.06
257.664,,8.06
258.136,,-8.94
258.607,,-20.94
259.079,,-4.94
259.551,,1.06
260.023,,-10.94
260.495,,5.06
260.966,,-18.94
261.438,,-1.94
261.91,,-4.94
262.381,,-15.94
262.853,,9.06
263.325,,23.06
263.796,,5.06
264.268,,22.06
264.739,,-4.94
265.21,,11.06
265.682,,-18.94
266.153,,-24.94
266.624,,-14.94
267.096,,9.06
267.567,,27.06
268.038,,9.06
268.509,,-15.94
268.981,,-22.94
269.452,,13.06
269.923,,-8.94
270.394,,-11.94
270.865,,-20.94
271.336,,-5.94
271.807,,-11.94
272.278,,-10.94
272.749,,-5.94
273.22,,10.06
273.69,,-8.94
274.161,,-8.94
274.632,,-5.94
275.103,,-12.94
275.574,,6.06
276.044,,-29.94
276.515,,-24.94
276.985,,3.06
277.456,,-2.94
277.927,,-3.94
278.397,,-20.94
278.868,,1.06
279.338,,18.06
279.808,,-2.94
280.279,,-21.94
280.749,,-5.94
281.219,,9.06
281.69,,12.06
282.16,,7.06
282.63,,11.06
283.1,,6.06
283.571,,-23.94
284.041,,12.06
284.511,,-16.94
284.981,,-8.94
285.451,,-20.94
285.921,,-9.94
286.391,,5.06
286.861,,-0.94
287.331,,15.06
287.8,,-9.94
288.27,,0.06
288.74,,-23.94
289.21,,0.06
289.68,,-24.94
290.149,,7.06
290.619,,7.06
291.089,,7.06
291.558,,-6.94
292.028,,-15.94
292.497,,-12.94
292.967,,-3.94
293.436,,8.06
293.906,,-15.94
294.375,,-24.94
294.845,,5.06
295.314,,-0.94
295.783,,-11.94
296.253,,13.06
296.722,,7.06
297.191,,18.06
297.66,,-13.94
298.129,,-11.94
298.598,,-1.94
299.068,,0.06
299.537,,-29.94
300.006,,-9.94
300.475,,5.06
300.944,,17.06
301.413,,4.06
301.881,,7.06
302.35,,2.06
302.819,,8.06
303.288,,-1.94
303.757,,-7.94
304.225,,-2.94
304.694,,4.06
305.163,,0.06
305.632,,17.06
306.1,,0.06
306.569,,3.06
307.037,,8.06
307.506,,1.06
307.974,,-10.94
308.443,,-5.94
308.911,,8.06
309.38,,-8.94
309.848,,-12.94
310.316,,1.06
310.785,,18.06
311.253,,-22.94
311.721,,-19.94
312.189,,10.06
312.657,,2.06
313.126,,-17.94
313.594,,-1.94
314.062,,-2.94
314.53,,16.06
314.998,,17.06
315.466,,-2.94
315.934,,-17.94
316.402,,11.06
316.869,,2.06
317.337,,-7.94
317.805,,-24.94
318.273,,9.06
318.741,,1.06
319.208,,-13.94
319.676,,-23.94
320.144,,-22.94
320.611,,15.06
321.079,,13.06
321.547,,-9.94
322.014,,-11.94
322.482,,7.06
322.949,,0.06
323.416,,-9.94
323.884,,10.06
324.351,,2.06
324.819,,-9.94
325.286,,2.06
325.753,,-24.94
326.22,,-15.94
326.688,,7.06
327.155,,-6.94
327.622,,-11.94
328.089,,-5.94
328.556,,42.06
329.023,,0.06
329.49,,-6.94
329.957,,-14.94
330.424,,1.06
330.891,,8.06
331.358,,-13.94
331.825,,-24.94
332.292,,1.06
332.759,,9.06
333.225,,-10.94
333.692,,-8.94
334.159,,10.06
334.626,,9.06
335.092,,-19.94
335.559,,2.06
336.026,,1.06
336.492,,-1.94
336.959,,5.06
337.425,,-11.94
337.892,,-5.94
338.358,,4.06
338.824,,-14.94
339.291,,-5.94
339.757,,-27.94
340.223,,29.06
340.69,,-0.94
341.156,,-10.94
341.622,,-16.94
342.088,,8.06
342.555,,3.06
343.021,,-3.94
343.487,,-22.94
343.953,,8.06
344.419,,18.06
344.885,,-8.94
345.351,,6.06
345.817,,-10.94
346.283,,-3.94
346.749,,-5.94
347.214,,-8.94
347.68,,2.06
348.146,,8.06
348.612,,10.06
349.077,,-1.94
349.543,,-4.94
350.009,,4.06
350.474,,-11.94
350.94,,-27.94
351.406,,8.06
351.871,,11.06
352.337,,-0.94
352.802,,17.06
353.268,,-7.94
353.733,,-14.94
354.198,,-4.94
354.664,,-20.94
355.129,,-22.94
355.594,,8.06
356.06,,5.06
356.525,,6.06
356.99,,-8.94
357.455,,-11.94
357.92,,-3.94
358.385,,-33.94
358.851,,-0.94
359.316,,-15.94
359.781,,-8.94
360.246,,-7.94
360.711,,8.06
361.175,,1.06
361.64,,15.06
362.105,,11.06
362.57,,9.06
363.035,,8.06
363.5,,16.06
363.964,,16.06
364.429,,-2.94
364.894,,8.06
365.358,,18.06
365.823,,12.06
366.288,,-0.94
366.752,,2.06
367.217,,-0.94
367.681,,19.06
368.146,,2.06
368.61,,7.06
369.074,,-9.94
369.539,,-2.94
370.003,,18.06
370.467,,0.06
370.932,,-22.94
371.396,,14.06
371.86,,4.06
372.324,,-6.94
372.789,,-6.94
373.253,,2.06
373.717,,15.06
374.181,,-3.94
374.645,,-13.94
375.109,,-13.94
375.573,,10.06
376.037,,6.06
376.501,,-28.94
376.965,,-11.94
377.428,,22.06
377.892,,-0.94
378.356,,6.06
378.82,,14.06
379.284,,11.06
379.747,,-8.94
380.211,,-13.94
380.675,,0.06
381.138,,6.06
381.602,,1.06
382.065,,-13.94
382.529,,-12.94
382.992,,11.06
383.456,,8.06
383.919,,10.06
384.383,,-9.94
384.846,,8.06
385.309,,13.06
385.773,,-0.94
386.236,,-10.94
386.699,,-6.94
387.162,,-8.94
387.626,,6.06
388.089,,-6.94
388.552,,3.06
389.015,,10.06
389.478,,1.06
389.941,,-16.94
390.404,,-9.94
390.867,,23.06
391.33,,0.06
391.793,,-0.94
392.256,,-5.94
392.719,,-13.94
393.182,,11.06
393.644,,1.06
394.107,,17.06
394.57,,11.06
395.033,,-6.94
395.495,,-15.94
395.958,,-3.94
396.42,,1.06
396.883,,8.06
397.346,,-3.94
397.808,,-1.94
398.271,,9.06
398.733,,13.06
399.196,,-14.94
399.658,,1.06
400.12,,-11.94
400.583,,-3.94
401.045,,1.06
401.507,,3.06
401.97,,3.06
402.432,,33.06
402.894,,19.06
403.356,,12.06
403.818,,-14.94
404.28,,21.06
404.743,,43.06
405.205,,126.06
405.667,,275.06
406.129,,348.06
406.591,,346.06
407.053,,204.06
407.514,,46.06
407.976,,9.06
408.438,,27.06
408.9,,10.06
409.362,,-3.94
409.823,,-10.94
410.285,,-11.94
410.747,,2.06
411.209,,-12.94
411.67,,12.06
412.132,,8.06
412.593,,18.06
413.055,,-1.94
413.516,,-24.94
413.978,,-11.94
414.439,,24.06
414.901,,-12.94
415.362,,-9.94
415.824,,1.06
416.285,,-6.94
416.746,,17.06
417.208,,5.06
417.669,,-19.94
418.13,,25.06
418.591,,3.06
419.052,,-8.94
419.514,,-21.94
419.975,,3.06
420.436,,-0.94
420.897,,-5.94
421.358,,7.06
421.819,,1.06
422.28,,28.06
422.741,,-4.94
423.202,,-5.94
423.662,,3.06
424.123,,7.06
424.584,,-7.94
425.045,,-19.94
425.506,,-25.94
425.966,,6.06
426.427,,7.06
426.888,,-4.94
427.348,,-4.94
427.809,,19.06
428.27,,-4.94
428.73,,-8.94
429.191,,-14.94
429.651,,14.06
430.112,,10.06
430.572,,-2.94
431.032,,-12.94
431.493,,3.06
431.953,,14.06
432.414,,7.06
432.874,,-13.94
433.334,,-13.94
433.794,,24.06
434.254,,0.06
434.715,,-13.94
435.175,,-9.94
435.635,,26.06
436.095,,27.06
436.555,,2.06
437.015,,-0.94
437.475,,11.06
437.935,,-22.94
438.395,,-0.94
438.855,,6.06
439.315,,4.06
439.775,,24.06
440.234,,-10.94
440.694,,-15.94
441.154,,13.06
441.614,,2.06
442.073,,12.06
442.533,,-5.94
442.993,,9.06
443.452,,22.06
443.912,,-6.94
444.372,,-9.94
444.831,,17.06
445.291,,25.06
445.75,,-3.94
446.21,,0.06
446.669,,1.06
447.128,,-10.94
447.588,,13.06
448.047,,-0.94
448.506,,7.06
448.966,,9.06
449.425,,19.06
449.884,,11.06
450.343,,-7.94
450.802,,4.06
451.262,,-3.94
451.721,,23.06
452.18,,0.06
452.639,,-3.94
453.098,,24.06
453.557,,-0.94
454.016,,4.06
454.475,,7.06
454.934,,10.06
455.392,,-9.94
455.851,,-22.94
456.31,,2.06
456.769,,12.06
457.228,,-5.94
457.686,,-11.94
458.145,,9.06
458.604,,8.06
459.062,,15.06
459.521,,-22.94
459.98,,-15.94
460.438,,-3.94
460.897,,23.06
461.355,,-2.94
461.814,,-27.94
462.272,,0.06
462.731,,7.06
463.189,,12.06
463.647,,-0.94
464.106,,-8.94
464.564,,13.06
465.022,,25.06
465.481,,-16.94
465.939,,8.06
466.397,,10.06
466.855,,-5.94
467.313,,8.06
467.771,,-17.94
468.229,,-5.94
468.687,,9.06
469.145,,5.06
469.603,,-24.94
470.061,,23.06
470.519,,4.06
470.977,,-16.94
471.435,,-5.94
471.893,,-10.94
472.351,,18.06
472.809,,-7.94
473.266,,-20.94
473.724,,-12.94
474.182,,23.06
474.64,,22.06
475.097,,-8.94
475.555,,2.06
476.012,,24.06
476.47,,-14.94
476.928,,-13.94
477.385,,-12.94
477.843,,-14.94
478.3,,17.06
478.757,,-6.94
479.215,,-11.94
479.672,,15.06
480.13,,5.06
480.587,,-6.94
481.044,,-6.94
481.501,,-5.94
481.959,,-1.94
482.416,,-11.94
482.873,,-8.94
483.33,,-6.94
483.787,,16.06
484.244,,10.06
484.701,,-9.94
485.159,,0.06
485.616,,9.06
486.072,,26.06
486.529,,11.06
486.986,,-9.94
487.443,,7.06
487.9,,-2.94
488.357,,-9.94
488.814,,-3.94
489.271,,-11.94
489.727,,20.06
490.184,,2.06
490.641,,-32.94
491.097,,5.06
491.554,,16.06
492.011,,9.06
492.467,,-22.94
492.924,,-26.94
493.38,,-3.94
493.837,,15.06
494.293,,0.06
494.75,,-6.94
495.206,,-13.94
495.663,,5.06
496.119,,0.06
496.575,,5.06
497.032,,0.06
497.488,,5.06
497.944,,-6.94
498.4,,-5.94
498.857,,-22.94
499.313,,-4.94
499.769,,-9.94
500.225,,22.06
500.681,,2.06
501.137,,-1.94
501.593,,-5.94
502.049,,-14.94
502.505,,-8.94
502.961,,23.06
503.417,,15.06
503.873,,11.06
504.329,,-13.94
504.785,,-6.94
505.241,,0.06
505.696,,-2.94
506.152,,-19.94
506.608,,-4.94
507.064,,7.06
507.519,,-12.94
507.975,,11.06
508.431,,-12.94
508.886,,-6.94
509.342,,5.06
509.797,,-11.94
510.253,,-8.94
510.708,,2.06
511.164,,12.06
511.619,,2.06
512.075,,-1.94
512.53,,15.06
512.985,,17.06
513.441,,-8.94
513.896,,3.06
514.351,,-15.94
514.806,,18.06
515.262,,1.06
515.717,,-6.94
516.172,,8.06
516.627,,25.06
517.082,,11.06
517.537,,-10.94
517.992,,11.06
518.447,,17.06
518.902,,-13.94
519.357,,-3.94
519.812,,4.06
520.267,,2.06
520.722,,-3.94
521.177,,-11.94
521.632,,-1.94
522.087,,-6.94
522.541,,8.06
522.996,,-1.94
523.451,,-4.94
523.906,,-14.94
524.36,,1.06
524.815,,-1.94
525.27,,-16.94
525.724,,-19.94
526.179,,12.06
526.633,,-11.94
527.088,,14.06
527.542,,-19.94
527.997,,8.06
528.451,,12.06
528.906,,8.06
529.36,,3.06
529.814,,13.06
530.269,,17.06
530.723,,-8.94
531.177,,29.06
531.631,,6.06
532.086,,22.06
532.54,,-12.94
532.994,,7.06
533.448,,0.06
533.902,,23.06
534.356,,6.06
534.81,,-7.94
535.264,,-4.94
535.718,,-0.94
536.172,,-23.94
536.626,,-27.94
537.08,,1.06
537.534,,21.06
537.988,,-0.94
538.442,,-1.94
538.896,,-0.94
539.349,,2.06
539.803,,-11.94
540.257,,15.06
540.711,,5.06
541.164,,16.06
541.618,,18.06
542.072,,-10.94
542.525,,-32.94
542.979,,2.06
543.432,,15.06
543.886,,-14.94
544.339,,-0.94
544.793,,-15.94
545.246,,28.06
545.7,,4.06
546.153,,-11.94
546.606,,4.06
547.06,,20.06
547.513,,-3.94
547.966,,7.06
548.42,,-24.94
548.873,,0.06
549.326,,9.06
549.779,,-14.94
550.232,,8.06
550.685,,-13.94
551.138,,-13.94
551.592,,-23.94
552.045,,-8.94
552.498,,6.06
552.951,,35.06
553.404,,7.06
553.856,,18.06
554.309,,-21.94
554.762,,27.06
555.215,,-1.94
555.668,,-17.94
556.121,,3.06
556.574,,27.06
557.026,,9.06
557.479,,-14.94
557.932,,-8.94
558.384,,-8.94
558.837,,19.06
559.29,,-12.94
559.742,,4.06
560.195,,-6.94
560.647,,4.06
561.1,,-16.94
561.552,,6.06
562.005,,15.06
562.457,,29.06
562.91,,8.06
563.362,,-14.94
563.814,,-1.94
564.267,,-3.94
564.719,,2.06
565.171,,-16.94
565.624,,-3.94
566.076,,20.06
566.528,,18.06
566.98,,15.06
567.432,,19.06
567.884,,19.06
568.337,,16.06
568.789,,-10.94
569.241,,15.06
569.693,,10.06
570.145,,28.06
570.597,,17.06
571.049,,7.06
571.5,,7.06
571.952,,12.06
572.404,,-14.94
572.856,,-12.94
573.308,,-17.94
573.76,,21.06
574.211,,10.06
574.663,,-29.94
575.115,,-7.94
575.567,,1.06
576.018,,17.06
576.47,,-1.94
576.921,,-4.94
577.373,,11.06
577.825,,8.06
578.276,,3.06
578.728,,-10.94
579.179,,-18.94
579.63,,19.06
580.082,,19.06
580.533,,-12.94
580.985,,-0.94
581.436,,29.06
581.887,,-0.94
582.339,,-15.94
582.79,,17.06
583.241,,10.06
583.692,,9.06
584.144,,4.06
584.595,,-2.94
585.046,,14.06
585.497,,1.06
585.948,,-16.94
586.399,,5.06
586.85,,20.06
587.301,,-0.94
587.752,,-4.94
588.203,,-13.94
588.654,,-13.94
589.105,,14.06
589.556,,4.06
590.007,,-9.94
590.457,,-11.94
590.908,,4.06
591.359,,-23.94
591.81,,-15.94
592.261,,8.06
592.711,,11.06
593.162,,5.06
593.613,,-12.94
594.063,,-0.94
594.514,,11.06
594.964,,23.06
595.415,,28.06
595.865,,-23.94
596.316,,-4.94
596.766,,-1.94
597.217,,-19.94
597.667,,13.06
598.118,,12.06
598.568,,6.06
599.018,,13.06
599.469,,-2.94
599.919,,-3.94
600.369,,8.06
600.82,,-5.94
601.27,,12.06
601.72,,2.06
602.17,,9.06
602.62,,2.06
603.07,,5.06
603.52,,3.06
603.971,,3.06
604.421,,17.06
604.871,,-7.94
605.321,,12.06
605.771,,17.06
606.221,,29.06
606.67,,18.06
607.12,,7.06
607.57,,-1.94
608.02,,35.06
608.47,,28.06
608.92,,2.06
609.369,,10.06
609.819,,20.06
610.269,,10.06
610.719,,5.06
611.168,,-3.94
611.618,,0.06
612.067,,33.06
612.517,,1.06
612.967,,-7.94
613.416,,10.06
613.866,,-4.94
614.315,,-8.94
614.765,,3.06
615.214,,16.06
615.663,,9.06
616.113,,11.06
616.562,,-10.94
617.012,,-17.94
617.461,,32.06
617.91,,18.06
618.359,,-14.94
618.809,,-1.94
619.258,,26.06
619.707,,4.06
620.156,,12.06
620.605,,12.06
621.055,,-1.94
621.504,,-1.94
621.953,,0.06
622.402,,35.06
622.851,,4.06
623.3,,-6.94
623.749,,3.06
624.198,,-9.94
624.647,,11.06
625.095,,5.06
625.544,,3.06
625.993,,-3.94
626.442,,6.06
626.891,,31.06
627.34,,-3.94
627.788,,-17.94
628.237,,-11.94
628.686,,3.06
629.134,,7.06
629.583,,3.06
630.032,,1.06
630.48,,17.06
630.929,,6.06
631.377,,8.06
631.826,,5.06
632.274,,24.06
632.723,,11.06
633.171,,3.06
633.62,,6.06
634.068,,18.06
634.516,,8.06
634.965,,20.06
635.413,,2.06
635.861,,-1.94
636.31,,3.06
636.758,,8.06
637.206,,-2.94
637.654,,10.06
638.103,,22.06
638.551,,30.06
638.999,,-9.94
639.447,,-21.94
639.895,,12.06
640.343,,16.06
640.791,,0.06
641.239,,14.06
641.687,,30.06
642.135,,19.06
642.583,,-1.94
643.031,,-16.94
643.479,,-1.94
643.927,,28.06
644.374,,-2.94
644.822,,27.06
645.27,,-13.94
645.718,,6.06
646.166,,20.06
646.613,,13.06
647.061,,18.06
647.509,,24.06
647.956,,35.06
648.404,,16.06
648.851,,3.06
649.299,,17.06
649.747,,10.06
650.194,,30.06
650.642,,16.06
651.089,,31.06
651.537,,28.06
651.984,,16.06
652.431,,0.06
652.879,,18.06
653.326,,42.06
653.773,,12.06
654.221,,23.06
654.668,,25.06
655.115,,26.06
655.562,,15.06
656.01,,27.06
656.457,,26.06
656.904,,34.06
657.351,,21.06
657.798,,27.06
658.245,,14.06
658.692,,34.06
659.139,,27.06
659.586,,25.06
660.033,,26.06
660.48,,32.06
660.927,,61.06
661.374,,45.06
661.821,,32.06
662.268,,40.06
662.715,,64.06
663.162,,58.06
663.608,,35.06
664.055,,47.06
664.502,,53.06
664.949,,50.06
665.395,,44.06
665.842,,33.06
666.289,,47.06
666.735,,46.06
667.182,,37.06
667.629,,24.06
668.075,,58.06
668.522,,66.06
668.968,,51.06
669.415,,20.06
669.861,,41.06
670.308,,70.06
670.754,,67.06
671.2,,43.06
671.647,,60.06
672.093,,90.06
672.539,,67.06
672.986,,68.06
673.432,,85.06
673.878,,63.06
674.324,,69.06
674.771,,45.06
675.217,,70.06
675.663,,93.06
676.109,,104.06
676.555,,93.06
677.001,,87.06
677.447,,114.06
677.893,,109.06
678.339,,86.06
678.785,,105.06
679.231,,98.06
679.677,,126.06
680.123,,122.06
680.569,,108.06
681.015,,122.06
681.461,,135.06
681.907,,116.06
682.353,,131.06
682.798,,115.06
683.244,,157.06
683.69,,165.06
684.135,,158.06
684.581,,163.06
685.027,,176.06
685.472,,148.06
685.918,,191.06
686.364,,191.06
686.809,,199.06
687.255,,190.06
687.7,,211.06
688.146,,203.06
688.591,,207.06
689.037,,246.06
689.482,,230.06
689.928,,229.06
690.373,,260.06
690.818,,270.06
691.264,,276.06
691.709,,269.06
692.154,,276.06
692.6,,294.06
693.045,,305.06
693.49,,305.06
693.935,,333.06
694.38,,339.06
694.825,,352.06
695.271,,357.06
695.716,,375.06
696.161,,408.06
696.606,,419.06
697.051,,395.06
697.496,,424.06
697.941,,430.06
698.386,,466.06
698.831,,484.06
699.276,,494.06
699.721,,479.06
700.165,,548.06
700.61,,536.06
701.055,,568.06
701.5,,590.06
701.945,,603.06
702.389,,610.06
702.834,,616.06
703.279,,648.06
703.724,,653.06
704.168,,709.06
704.613,,719.06
705.058,,695.06
705.502,,748.06
705.947,,821.06
706.391,,836.06
706.836,,838.06
707.28,,860.06
707.725,,915.06
708.169,,892.06
708.614,,950.06
709.058,,954.06
709.502,,1031.06
709.947,,1050.06
710.391,,1121.06
710.835,,1102.06
711.28,,1171.06
711.724,,1247.06
712.168,,1217.06
712.613,,1291.06
713.057,,1333.06
713.501,,1350.06
713.945,,1424.06
714.389,,1488.06
714.833,,1524.06
715.277,,1552.06
715.722,,1602.06
716.166,,1640.06
716.61,,1739.06
717.054,,1747.06
717.498,,1782.06
717.942,,1820.06
718.385,,1880.06
718.829,,2042.06
719.273,,2075.06
719.717,,2195.06
720.161,,2207.06
720.605,,2279.06
721.049,,2368.06
721.492,,2381.06
721.936,,2532.06
722.38,,2528.06
722.824,,2652.06
723.267,,2752.06
723.711,,2795.06
724.155,,2866.06
724.598,,2979.06
725.042,,3065.06
725.485,,3225.06
725.929,,3265.06
726.372,,3380.06
726.816,,3561.06
727.259,,3635.06
727.703,,3732.06
728.146,,3829.06
728.59,,4010.06
729.033,,4081.06
729.476,,4200.06
729.92,,4340.06
730.363,,4573.06
730.806,,4581.06
731.25,,4815.06
731.693,,4952.06
732.136,,5108.06
732.579,,5333.06
733.023,,5484.06
733.466,,5725.06
733.909,,5864.06
734.352,,5947.06
734.795,,6193.06
735.238,,6372.06
735.681,,6495.06
736.124,,6743.06
736.567,,6995.06
737.01,,7188.06
737.453,,7453.06
737.896,,7649.06
738.339,,7877.06
738.782,,8112.06
739.225,,8307.06
739.668,,8720.06
740.111,,9006.06
740.553,,9235.06
740.996,,9507.06
741.439,,9697.06
741.882,,10099.06
742.325,,10238.06
742.767,,10341.06
743.21,,10881.06
743.653,,11210.06
744.095,,11551.06
744.538,,11786.06
744.98,,11770.06
745.423,,12149.06
745.866,,12452.06
746.308,,12683.06
746.751,,12817.06
747.193,,13048.06
747.635,,13332.06
748.078,,13364.06
748.52,,13498.06
748.963,,13722.06
749.405,,13937.06
749.847,,14112.06
750.29,,14280.06
750.732,,14320.06
751.174,,14551.06
751.617,,14694.06
752.059,,14793.06
752.501,,15036.06
752.943,,15065.06
753.385,,15172.06
753.828,,15346.06
754.27,,15464.06
754.712,,15595.06
755.154,,15641.06
755.596,,15775.06
756.038,,15783.06
756.48,,15795.06
756.922,,15781.06
757.364,,15777.06
757.806,,15787.06
758.248,,15798.06
758.69,,15785.06
759.132,,15783.06
759.574,,15758.06
760.016,,15796.06
760.457,,15776.06
760.899,,15777.06
761.341,,15777.06
761.783,,15768.06
762.224,,15785.06
762.666,,15779.06
763.108,,15757.06
763.55,,15776.06
763.991,,15778.06
764.433,,15775.06
764.874,,15769.06
765.316,,15775.06
765.758,,15777.06
766.199,,15762.06
766.641,,15748.06
767.082,,15776.06
767.524,,15782.06
767.965,,15789.06
768.407,,15776.06
768.848,,15775.06
769.289,,15772.06
769.731,,15774.06
770.172,,15765.06
770.613,,15772.06
771.055,,15783.06
771.496,,15777.06
771.937,,15782.06
772.379,,15767.06
772.82,,15779.06
773.261,,15766.06
773.702,,15782.06
774.143,,15775.06
774.584,,15779.06
775.026,,15789.06
775.467,,15783.06
775.908,,15771.06
776.349,,15775.06
776.79,,15779.06
777.231,,15772.06
777.672,,15767.06
778.113,,15745.06
778.554,,15626.06
778.995,,15551.06
779.436,,15412.06
779.876,,15139.06
780.317,,15035.06
780.758,,14911.06
781.199,,14912.06
781.64,,14738.06
782.081,,14588.06
782.521,,14337.06
782.962,,14151.06
783.403,,14007.06
783.843,,13848.06
784.284,,13677.06
784.725,,13549.06
785.165,,13275.06
785.606,,13158.06
786.047,,12921.06
786.487,,12728.06
786.928,,12408.06
787.368,,12209.06
787.809,,11993.06
788.249,,11807.06
788.69,,11529.06
789.13,,11214.06
789.571,,10862.06
790.011,,10818.06
790.451,,10495.06
790.892,,10305.06
791.332,,9947.06
791.772,,9755.06
792.213,,9475.06
792.653,,9194.06
793.093,,8979.06
793.533,,8681.06
793.974,,8617.06
794.414,,8526.06
794.854,,8277.06
795.294,,7907.06
795.734,,7722.06
796.174,,7611.06
796.614,,7342.06
797.054,,7231.06
797.494,,7069.06
797.934,,6912.06
798.374,,6694.06
798.814,,6440.06
799.254,,6412.06
799.694,,6240.06
800.134,,6084.06
800.574,,6058.06
801.014,,5950.06
801.454,,5730.06
801.894,,5524.06
802.334,,5426.06
802.773,,5359.06
803.213,,5029.06
803.653,,4957.06
804.093,,4875.06
804.532,,4807.06
804.972,,4792.06
805.412,,4592.06
805.851,,4431.06
806.291,,4306.06
806.731,,4302.06
807.17,,4196.06
807.61,,4163.06
808.049,,4072.06
808.489,,3886.06
808.928,,3775.06
809.368,,3729.06
809.807,,3689.06
810.247,,3579.06
810.686,,3479.06
811.125,,3510.06
811.565,,3437.06
812.004,,3339.06
812.444,,3255.06
812.883,,3142.06
813.322,,3094.06
813.761,,3075.06
814.201,,2961.06
814.64,,2866.06
815.079,,2896.06
815.518,,2815.06
815.958,,2843.06
816.397,,2682.06
816.836,,2636.06
817.275,,2533.06
817.714,,2491.06
818.153,,2408.06
818.592,,2384.06
819.031,,2341.06
819.47,,2299.06
819.909,,2224.06
820.348,,2130.06
820.787,,2091.06
821.226,,2058.06
821.665,,1996.06
822.104,,1912.06
822.543,,1853.06
822.982,,1795.06
823.42,,1755.06
823.859,,1731.06
824.298,,1681.06
824.737,,1660.06
825.176,,1560.06
825.614,,1513.06
826.053,,1485.06
826.492,,1414.06
826.93,,1394.06
827.369,,1354.06
827.808,,1261.06
828.246,,1222.06
828.685,,1254.06
829.123,,1187.06
829.562,,1146.06
830,,1127.06
830.439,,1079.06
830.877,,1042.06
831.316,,974.06
831.754,,982.06
832.193,,946.06
832.631,,904.06
833.07,,875.06
833.508,,843.06
833.946,,824.06
834.385,,770.06
834.823,,736.06
835.261,,714.06
835.7,,727.06
836.138,,704.06
836.576,,653.06
837.014,,617.06
837.452,,627.06
837.891,,587.06
838.329,,604.06
838.767,,559.06
839.205,,570.06
839.643,,540.06
840.081,,517.06
840.519,,461.06
840.957,,472.06
841.395,,448.06
841.833,,442.06
842.271,,423.06
842.709,,385.06
843.147,,368.06
843.585,,412.06
844.023,,399.06
844.461,,363.06
844.899,,350.06
845.336,,308.06
845.774,,327.06
846.212,,310.06
846.65,,302.06
847.088,,298.06
847.525,,259.06
847.963,,276.06
848.401,,264.06
848.838,,253.06
849.276,,250.06
849.714,,232.06
850.151,,240.06
850.589,,236.06
851.026,,227.06
851.464,,215.06
851.902,,193.06
852.339,,191.06
852.777,,202.06
853.214,,188.06
853.651,,166.06
854.089,,191.06
854.526,,186.06
854.964,,174.06
855.401,,148.06
855.838,,154.06
856.276,,130.06
856.713,,124.06
857.15,,141.06
857.588,,124.06
858.025,,112.06
858.462,,117.06
858.899,,129.06
859.337,,116.06
859.774,,100.06
860.211,,110.06
860.648,,86.06
861.085,,95.06
861.522,,104.06
861.959,,93.06
862.397,,75.06
862.834,,86.06
863.271,,75.06
863.708,,88.06
864.145,,81.06
864.582,,74.06
865.019,,81.06
865.456,,82.06
865.892,,66.06
866.329,,60.06
866.766,,46.06
867.203,,59.06
867.64,,40.06
868.077,,65.06
868.514,,54.06
868.95,,82.06
869.387,,62.06
869.824,,53.06
870.261,,55.06
870.697,,65.06
871.134,,58.06
871.571,,28.06
872.007,,37.06
872.444,,55.06
872.88,,63.06
873.317,,80.06
873.754,,29.06
874.19,,27.06
874.627,,35.06
875.063,,49.06
875.5,,37.06
875.936,,28.06
876.373,,30.06
876.809,,26.06
877.246,,6.06
877.682,,40.06
878.118,,41.06
878.555,,23.06
878.991,,29.06
879.427,,43.06
879.864,,21.06
880.3,,42.06
880.736,,26.06
881.172,,14.06
881.609,,34.06
882.045,,40.06
882.481,,39.06
882.917,,26.06
883.353,,20.06
883.79,,23.06
884.226,,8.06
884.662,,32.06
885.098,,40.06
885.534,,38.06
885.97,,23.06
886.406,,5.06
886.842,,30.06
887.278,,15.06
887.714,,6.06
888.15,,25.06
888.586,,24.06
889.022,,28.06
889.458,,1.06
889.893,,15.06
890.329,,27.06
890.765,,29.06
891.201,,12.06
891.637,,-10.94
892.073,,32.06
892.508,,18.06
892.944,,25.06
893.38,,30.06
893.816,,19.06
894.251,,7.06
894.687,,18.06
895.123,,13.06
895.558,,3.06
895.994,,12.06
896.429,,28.06
896.865,,28.06
897.301,,19.06
897.736,,3.06
898.172,,8.06
898.607,,10.06
899.043,,-10.94
899.478,,17.06
899.913,,32.06
900.349,,10.06
900.784,,7.06
901.22,,27.06
901.655,,17.06
902.09,,15.06
902.526,,2.06
902.961,,4.06
903.396,,-0.94
903.832,,24.06
904.267,,12.06
904.702,,30.06
905.137,,1.06
905.573,,12.06
906.008,,14.06
906.443,,9.06
906.878,,32.06
907.313,,2.06
907.748,,36.06
908.183,,2.06
908.619,,17.06
909.054,,5.06
909.489,,-8.94
909.924,,7.06
910.359,,-0.94
910.794,,12.06
911.229,,12.06
911.664,,17.06
912.099,,-9.94
912.533,,-21.94
912.968,,26.06
913.403,,13.06
913.838,,-5.94
914.273,,26.06
914.708,,12.06
915.143,,13.06
915.577,,4.06
916.012,,2.06
916.447,,24.06
916.882,,3.06
917.316,,10.06
917.751,,7.06
918.186,,9.06
918.62,,20.06
919.055,,-3.94
919.49,,15.06
919.924,,13.06
920.359,,-5.94
920.793,,4.06
921.228,,10.06
921.663,,-1.94
922.097,,18.06
922.532,,14.06
922.966,,-10.94
923.4,,2.06
923.835,,-2.94
924.269,,-1.94
924.704,,5.06
925.138,,4.06
925.573,,21.06
926.007,,23.06
926.441,,15.06
926.876,,13.06
927.31,,-1.94
927.744,,28.06
928.178,,-0.94
928.613,,1.06
929.047,,4.06
929.481,,11.06
929.915,,14.06
930.35,,17.06
930.784,,1.06
931.218,,-9.94
931.652,,1.06
932.086,,1.06
932.52,,-9.94
932.954,,32.06
933.388,,28.06
933.822,,25.06
934.256,,8.06
934.69,,7.06
935.124,,23.06
935.558,,15.06
935.992,,5.06
936.426,,21.06
936.86,,27.06
937.294,,9.06
937.728,,4.06
938.162,,-4.94
938.596,,1.06
939.029,,1.06
939.463,,0.06
939.897,,-10.94
940.331,,8.06
940.765,,25.06
941.198,,6.06
941.632,,5.06
942.066,,13.06
942.499,,27.06
942.933,,10.06
943.367,,-12.94
943.8,,1.06
944.234,,20.06
944.668,,16.06
945.101,,-0.94
945.535,,-4.94
945.968,,3.06
946.402,,-12.94
946.835,,-9.94
947.269,,8.06
947.702,,8.06
948.136,,11.06
948.569,,7.06
949.003,,-18.94
949.436,,7.06
949.869,,5.06
950.303,,7.06
950.736,,6.06
951.17,,4.06
951.603,,20.06
952.036,,3.06
952.469,,-21.94
952.903,,-1.94
953.336,,19.06
953.769,,2.06
954.202,,4.06
954.636,,21.06
955.069,,6.06
955.502,,31.06
955.935,,12.06
956.368,,5.06
956.801,,28.06
957.234,,19.06
957.668,,-5.94
958.101,,-14.94
958.534,,28.06
958.967,,15.06
959.4,,12.06
959.833,,1.06
960.266,,-3.94
960.699,,4.06
961.132,,-8.94
961.565,,-7.94
961.997,,1.06
962.43,,-7.94
962.863,,7.06
963.296,,-4.94
963.729,,-11.94
964.162,,15.06
964.595,,4.06
965.027,,-5.94
965.46,,42.06
965.893,,-2.94
966.326,,19.06
966.758,,5.06
967.191,,0.06
967.624,,16.06
968.056,,14.06
968.489,,-9.94
968.922,,-1.94
969.354,,24.06
969.787,,8.06
970.22,,-2.94
970.652,,9.06
971.085,,-26.94
971.517,,11.06
971.95,,0.06
972.382,,9.06
972.815,,6.06
973.247,,17.06
973.68,,23.06
974.112,,25.06
974.545,,18.06
974.977,,23.06
975.409,,-7.94
975.842,,-5.94
976.274,,-18.94
976.707,,5.06
977.139,,-0.94
977.571,,0.06
978.003,,1.06
978.436,,1.06
978.868,,25.06
979.3,,28.06
979.732,,9.06
980.165,,-1.94
980.597,,1.06
981.029,,-7.94
981.461,,25.06
981.893,,7.06
982.325,,16.06
982.758,,3.06
983.19,,0.06
983.622,,-14.94
984.054,,-0.94
984.486,,5.06
984.918,,5.06
985.35,,15.06
985.782,,0.06
986.214,,10.06
986.646,,-3.94
987.078,,-4.94
987.51,,5.06
987.942,,8.06
988.373,,15.06
988.805,,6.06
989.237,,4.06
989.669,,22.06
990.101,,1.06
990.533,,-10.94
990.965,,14.06
991.396,,23.06
991.828,,5.06
992.26,,12.06
992.692,,-6.94
993.123,,14.06
993.555,,22.06
993.987,,2.06
994.418,,10.06
994.85,,-1.94
995.282,,14.06
995.713,,17.06
996.145,,3.06
996.576,,23.06
997.008,,10.06
997.44,,10.06
997.871,,20.06
998.303,,1.06
998.734,,4.06
999.166,,5.06
999.597,,8.06
1000.029,,12.06
1000.46,,-5.94
1000.891,,2.06
1001.323,,19.06
1001.754,,15.06
1002.186,,-13.94
1002.617,,-1.94
1003.048,,4.06
1003.48,,21.06
1003.911,,-11.94
1004.342,,17.06
1004.774,,5.06
1005.205,,0.06
1005.636,,3.06
1006.067,,23.06
1006.498,,-9.94
1006.93,,-5.94
1007.361,,-15.94
1007.792,,17.06
1008.223,,-2.94
1008.654,,3.06
1009.085,,6.06
1009.517,,10.06
1009.948,,21.06
1010.379,,-14.94
1010.81,,13.06
1011.241,,0.06
1011.672,,20.06
1012.103,,-0.94
1012.534,,-19.94
1012.965,,-1.94
1013.396,,13.06
1013.827,,2.06
1014.258,,27.06
1014.689,,-0.94
1015.12,,-1.94
1015.55,,-7.94
1015.981,,-12.94
1016.412,,2.06
1016.843,,11.06
1017.274,,22.06
1017.705,,-3.94
1018.135,,3.06
1018.566,,21.06
1018.997,,7.06
1019.428,,6.06
1019.858,,1.06
1020.289,,20.06
1020.72,,-1.94
1021.15,,-2.94
1021.581,,10.06
1022.012,,3.06
1022.442,,16.06
1022.873,,23.06
1023.304,,1.06
1023.734,,21.06
1024.165,,-15.94
1024.595,,1.06
1025.026,,1.06
1025.456,,13.06
1025.887,,27.06
1026.317,,7.06
1026.748,,-7.94
1027.178,,-13.94
1027.609,,6.06
1028.039,,7.06
1028.47,,-28.94
1028.9,,-14.94
1029.331,,0.06
1029.761,,16.06
1030.191,,0.06
1030.622,,5.06
1031.052,,6.06
1031.482,,-0.94
1031.913,,12.06
1032.343,,3.06
1032.773,,-5.94
1033.203,,30.06
1033.634,,20.06
1034.064,,0.06
1034.494,,7.06
1034.924,,3.06
1035.354,,9.06
1035.784,,-4.94
1036.215,,-14.94
1036.645,,17.06
1037.075,,11.06
1037.505,,-4.94
1037.935,,-0.94
1038.365,,28.06
1038.795,,-4.94
1039.225,,-10.94
1039.655,,6.06
1040.085,,-3.94
1040.515,,-18.94
1040.945,,-1.94
1041.375,,-8.94
1041.805,,-0.94
1042.235,,9.06
1042.665,,5.06
1043.095,,-17.94
1043.525,,-6.94
1043.955,,23.06
1044.384,,8.06
1044.814,,-17.94
1045.244,,-10.94
1045.674,,19.06
1046.104,,-6.94
1046.534,,-2.94
1046.963,,-6.94
1047.393,,-8.94
1047.823,,15.06
1048.252,,18.06
1048.682,,-14.94
1049.112,,18.06
1049.542,,13.06
1049.971,,-18.94
1050.401,,26.06
1050.831,,2.06
1051.26,,-3.94
1051.69,,-14.94
1052.119,,-14.94
1052.549,,-4.94
1052.978,,17.06
1053.408,,20.06
1053.838,,12.06
1054.267,,-11.94
1054.697,,0.06
1055.126,,-9.94
1055.555,,16.06
1055.985,,27.06
1056.414,,-4.94
1056.844,,-10.94
1057.273,,-14.94
1057.703,,3.06
1058.132,,-13.94
1058.561,,-3.94
1058.991,,11.06
1059.42,,-4.94
1059.849,,3.06
1060.279,,10.06
1060.708,,17.06
1061.137,,8.06
1061.566,,19.06
1061.996,,6.06
1062.425,,-5.94
1062.854,,-0.94
1063.283,,11.06
1063.713,,16.06
1064.142,,-11.94
1064.571,,-3.94
1065,,-1.94
1065.429,,12.06
1065.858,,1.06
1066.287,,18.06
1066.716,,10.06
1067.146,,26.06
1067.575,,18.06
1068.004,,20.06
1068.433,,-14.94
1068.862,,-14.94
1069.291,,5.06
1069.72,,15.06
1070.149,,-14.94
1070.578,,9.06
1071.007,,2.06
1071.435,,-11.94
1071.864,,5.06
1072.293,,-17.94
1072.722,,5.06
1073.151,,-13.94
1073.58,,-9.94
1074.009,,-4.94
1074.438,,1.06
1074.866,,20.06
1075.295,,0.06
1075.724,,2.06
1076.153,,-20.94
1076.581,,10.06
1077.01,,-1.94
1077.439,,23.06
1077.868,,17.06
1078.296,,-5.94
1078.725,,4.06
1079.154,,-1.94
1079.582,,5.06
1080.011,,24.06
1080.44,,22.06
1080.868,,-1.94
1081.297,,15.06
1081.725,,-16.94
1082.154,,21.06
1082.583,,4.06
1083.011,,7.06
1083.44,,7.06
1083.868,,13.06
1084.297,,-17.94
1084.725,,-17.94
1085.154,,2.06
1085.582,,22.06
1086.011,,1.06
1086.439,,-5.94
1086.867,,-6.94
1087.296,,-2.94
1087.724,,-2.94
1088.153,,-2.94
1088.581,,3.06
1089.009,,16.06
1089.438,,-9.94
1089.866,,-8.94
1090.294,,-14.94
1090.723,,-12.94
1091.151,,3.06
1091.579,,11.06
1092.007,,-4.94
1092.436,,-2.94
1092.864,,4.06
1093.292,,4.06
1093.72,,7.06
1094.148,,6.06
1094.576,,9.06
1095.005,,21.06
1095.433,,15.06
1095.861,,5.06
1096.289,,-19.94
1096.717,,10.06
1097.145,,1.06
1097.573,,9.06
1098.001,,13.06
1098.429,,-9.94
1098.857,,7.06
1099.285,,22.06
1099.713,,3.06
1100.141,,15.06
1100.569,,-15.94
1100.997,,11.06
1101.425,,2.06
1101.853,,-3.94
1102.281,,-6.94
1102.709,,-5.94
1103.137,,3.06
1103.565,,15.06
1103.993,,-2.94
1104.421,,-2.94
1104.848,,-11.94
1105.276,,24.06
1105.704,,-17.94
1106.132,,-6.94
1106.56,,8.06
